# wavelength(nm)   u             g             r            i            z            Y            VR             
  300          0.13401776    8.2373E-4     8.9314E-4    0.00200531   0.00221552   5.244E-4     0.0            
  301          0.10761069    0.00105835    9.9687E-4    0.00227989   0.00221496   7.2794E-4    0.0            
  302          0.08801897    0.00130958    7.301E-4     0.00206938   0.00260144   3.77E-4      0.0            
  303          0.15126038    0.00103889    8.3431E-4    0.00209648   0.00217149   4.2126E-4    0.0            
  304          2.11805728    0.00108156    0.00117723   0.00224326   0.00227966   6.0362E-4    0.0            
  305          8.55043       0.00114917    7.8745E-4    0.00204182   0.00251759   4.1272E-4    0.0            
  306          18.55345172   0.00112372    6.7501E-4    0.00201045   0.00231644   3.7081E-4    0.0            
  307          28.39175862   0.0010075     9.1417E-4    0.00229288   0.00247387   6.5338E-4    0.0            
  308          32.97253103   0.00129587    7.2511E-4    0.00213423   0.00263897   4.7711E-4    0.0            
  309          36.4996069    0.00105287    7.078E-4     0.00200811   0.00231014   4.726E-4     0.0            
  310          40.4425069    0.00110656    7.347E-4     0.00201879   0.00223954   5.1658E-4    0.0068889655   
  311          48.22088966   0.00116146    0.00101573   0.00206739   0.00204098   6.7809E-4    0.003962069    
  312          54.98317586   9.5611E-4     9.6818E-4    0.00215034   0.0021319    4.7815E-4    0.0025465517   
  313          59.2927       0.00111751    8.37E-4      0.00205281   0.00228641   9.0229E-4    0.0022137931   
  314          63.87615517   8.9938E-4     7.5936E-4    0.00215362   0.00223035   0.00118929   0.0023062069   
  315          67.57535172   0.00108569    8.1611E-4    0.00217301   0.00227717   0.0011879    0.0020703448   
  316          69.58726552   8.2586E-4     7.5423E-4    0.00236034   0.00247652   7.4904E-4    0.00165        
  317          70.05563448   9.6553E-4     6.9801E-4    0.0022749    0.00247934   0.00102548   0.0011975862   
  318          72.60301034   9.5659E-4     9.3826E-4    0.00224198   0.00248738   0.00118293   0.0012724138   
  319          76.78950345   8.6299E-4     8.9253E-4    0.00195791   0.00273667   0.00183557   9.313793E-4    
  320          79.91230345   9.8551E-4     0.001008     0.00194184   0.00285365   0.00150673   0.001142069    
  321          81.39916897   9.5817E-4     7.6177E-4    0.0019374    0.00326519   0.00131143   0.0011751724   
  322          82.51021724   7.6383E-4     6.0978E-4    0.00213341   0.00333574   0.00165662   7.62069E-4     
  323          82.79112759   8.736E-4      7.3559E-4    0.00244781   0.00274442   0.0018118    8.103448E-4    
  324          83.62266207   0.00101095    8.9449E-4    0.00215108   0.00274968   9.8581E-4    9.775862E-4    
  325          85.05311034   9.495E-4      7.1708E-4    0.00195036   0.0032003    5.3444E-4    7.465517E-4    
  326          86.60012759   0.00102636    7.5762E-4    0.00202494   0.00323955   7.3975E-4    7.862069E-4    
  327          87.72194828   0.00103958    6.9141E-4    0.00193885   0.00360093   8.7438E-4    7.086207E-4    
  328          87.75521034   8.579E-4      7.084E-4     0.0019271    0.00484734   0.00114679   6.482759E-4    
  329          88.2366069    8.4925E-4     8.5711E-4    0.00221708   0.00570214   0.00182929   9.551724E-4    
  330          89.69900345   9.5538E-4     6.3161E-4    0.00200713   0.00464375   0.00201358   8.675862E-4    
  331          89.91213103   9.8186E-4     6.6862E-4    0.00209862   0.00294743   0.00143093   7.555172E-4    
  332          88.26274138   0.00117095    6.2283E-4    0.00195958   0.00285625   0.00100138   8.593103E-4    
  333          87.94605862   0.00109008    7.002E-4     0.00228759   0.002935     6.4196E-4    8.389655E-4    
  334          86.50103103   9.6287E-4     0.00110905   0.00201054   0.00356332   6.0212E-4    7.955172E-4    
  335          87.09282069   0.00116544    7.8635E-4    0.00212356   0.00430676   7.2409E-4    7.162069E-4    
  336          89.2298       9.7093E-4     5.5458E-4    0.00206565   0.00572151   6.7865E-4    6.065517E-4    
  337          89.39863793   0.00109049    5.9578E-4    0.00196463   0.00939135   7.1318E-4    7.768966E-4    
  338          90.01431724   0.00112035    7.2521E-4    0.0018997    0.01161824   8.1692E-4    8.772414E-4    
  339          90.0687069    9.2671E-4     5.7677E-4    0.00188572   0.00916503   7.1341E-4    7.886207E-4    
  340          90.91314828   0.00103101    6.2354E-4    0.00204538   0.00517608   5.0416E-4    6.889655E-4    
  341          90.94965517   0.00110515    5.1747E-4    0.00222852   0.00352775   8.1255E-4    7.975862E-4    
  342          89.7995069    8.508E-4      2.9672E-4    0.00202459   0.00298517   6.4781E-4    6.537931E-4    
  343          89.65222414   9.2355E-4     8.7686E-4    0.00202883   0.00310637   9.2529E-4    7.041379E-4    
  344          90.7939       9.5603E-4     4.1268E-4    0.00201607   0.00387387   6.8509E-4    6.172414E-4    
  345          92.25185172   9.1148E-4     5.5913E-4    0.00209246   0.00493819   5.7982E-4    5.937931E-4    
  346          93.5242069    9.7622E-4     4.6211E-4    0.0020712    0.00506313   7.0144E-4    5.82069E-4     
  347          93.31998276   9.9846E-4     3.5948E-4    0.00201395   0.00717934   5.814E-4     5.072414E-4    
  348          92.48095172   9.1137E-4     5.6823E-4    0.00195009   0.01147302   4.4775E-4    6.910345E-4    
  349          91.94042414   1.9845E-4     -1.5724E-4   0.00139209   0.01121881   -1.2351E-4   4.213793E-4    
  350          91.8710069    9.5454E-4     2.9607E-4    0.00202134   0.00685885   4.6456E-4    6.313793E-4    
  351          91.82248621   0.00115923    4.0308E-4    0.0021577    0.00344761   4.0669E-4    5.455172E-4    
  352          91.59363448   0.00124898    7.5371E-4    0.00185958   0.00305463   3.6023E-4    5.413793E-4    
  353          91.11458966   0.00113666    3.4031E-4    0.00213276   0.00255498   8.1996E-4    4.886207E-4    
  354          91.32047241   7.9267E-4     5.5704E-4    0.00197469   0.00229233   8.6694E-4    5.110345E-4    
  355          92.51813103   9.0492E-4     7.5508E-4    0.00182468   0.00282469   3.8254E-4    4.703448E-4    
  356          94.30571379   9.9786E-4     4.5056E-4    0.00203159   0.00290906   4.7894E-4    4.4E-4         
  357          94.68775862   0.00101938    8.0375E-4    0.00211942   0.00256943   4.5991E-4    3.541379E-4    
  358          93.76113448   0.00125419    7.1586E-4    0.00180836   0.00264448   1.5178E-4    4.806897E-4    
  359          92.80148276   8.8854E-4     4.5725E-4    0.00204756   0.00253422   5.4255E-4    2.889655E-4    
  360          92.03501724   0.00107597    6.3042E-4    0.00184587   0.00211026   3.1849E-4    4.696552E-4    
  361          91.71674828   0.00100115    5.853E-4     0.00233233   0.00219543   2.0764E-4    4.106897E-4    
  362          92.35454138   0.00108732    3.3311E-4    0.00255333   0.00243912   4.2184E-4    3.562069E-4    
  363          93.67914483   0.00100281    5.0812E-4    0.00222879   0.00196836   7.3185E-4    4.262069E-4    
  364          94.33562759   9.4039E-4     3.9824E-4    0.00251878   0.00242411   3.6652E-4    4.113793E-4    
  365          94.13703448   9.6792E-4     4.8195E-4    0.0023698    0.00285224   0.00112983   2.47931E-4     
  366          94.90835172   9.6552E-4     6.6456E-4    0.00228326   0.0031074    6.3463E-4    3.289655E-4    
  367          95.51185862   9.6695E-4     6.0289E-4    0.00232014   0.00287775   6.1478E-4    2.393103E-4    
  368          95.65976897   8.718E-4      4.0762E-4    0.00218468   0.00254741   4.206E-4     3.734483E-4    
  369          95.53958621   0.001016      6.9099E-4    0.00189491   0.00294368   4.4409E-4    3.134483E-4    
  370          95.11995862   0.00104295    5.3561E-4    0.00199325   0.00278403   9.7789E-4    0.0034386207   
  371          94.74297931   0.00104264    3.5057E-4    0.00215796   0.00237636   7.707E-4     0.00274        
  372          94.50001034   8.3364E-4     5.3144E-4    0.00186505   0.00232212   6.1786E-4    0.0045351724   
  373          94.4797931    0.00111626    5.0147E-4    0.00207687   0.00253403   5.018E-4     0.0032551724   
  374          95.04814828   9.7879E-4     5.6444E-4    0.00204492   0.00268398   0.00108211   0.0031334483   
  375          95.83081724   0.0010734     2.634E-4     0.00203649   0.00263721   0.00235473   0.0042951724   
  376          96.30082069   9.9782E-4     5.8417E-4    0.00177165   0.0028878    0.00356588   0.0031982759   
  377          96.42297931   0.00103053    5.4044E-4    0.00191542   0.00250666   0.00367582   0.0029393103   
  378          96.39663103   9.3661E-4     5.1333E-4    0.00197688   0.0021695    0.00268973   0.0029437931   
  379          96.57931034   7.6629E-4     3.4873E-4    0.00196074   0.00189873   0.00138027   0.002732069    
  380          96.66980345   0.0010379     5.7007E-4    0.00177895   0.00221834   8.3035E-4    0.0027834483   
  381          96.67121034   0.0010838     6.2952E-4    0.00202451   0.00245955   2.9668E-4    0.0030844828   
  382          96.27355172   0.00112166    3.9949E-4    0.00205772   0.00224621   4.7765E-4    0.0027375862   
  383          95.5878931    9.7768E-4     5.5288E-4    0.00176744   0.0022747    4.4366E-4    0.0028358621   
  384          95.06426897   0.00145383    5.8724E-4    0.00204952   0.00195541   3.7632E-4    0.0031065517   
  385          94.88612414   0.00243302    7.7358E-4    0.00186589   0.00268963   4.0862E-4    0.0025368966   
  386          95.13297931   0.00367021    6.5185E-4    0.00180389   0.00291577   2.8033E-4    0.0027913793   
  387          95.71766207   0.00458996    6.961E-4     0.00196843   0.00332017   7.405E-4     0.0018593103   
  388          96.31732759   0.00646509    4.2098E-4    0.00200847   0.00294942   4.8201E-4    0.002247931    
  389          96.84911724   0.01149685    7.0514E-4    0.00186142   0.00284304   3.9322E-4    0.0019268966   
  390          96.99111034   0.02877554    0.00112627   0.00209705   0.00249474   5.1526E-4    0.0021458621   
  391          97.06504828   0.10569174    0.00151931   0.00200258   0.002258     3.2357E-4    0.0017996552   
  392          96.81185172   0.355169      0.00161703   0.00205071   0.00229387   4.7796E-4    0.0018165517   
  393          96.63681724   1.00564969    0.00143131   0.00210428   0.00217382   3.4492E-4    0.0018982759   
  394          96.51987241   2.92234802    0.0013348    0.00185974   0.0022361    4.0928E-4    0.0017268966   
  395          96.11457241   10.02316241   9.3091E-4    0.00192902   0.00226172   2.4532E-4    0.0018589655   
  396          95.97025517   19.55565517   0.00147937   0.00208291   0.00211182   4.5141E-4    0.0018931034   
  397          94.71630345   32.97045517   0.00275489   0.00215342   0.00216781   2.6783E-4    0.0019024138   
  398          85.9575       47.30148276   0.00440033   0.00191119   0.00257407   3.6737E-4    0.0011806897   
  399          63.97785172   60.94654483   0.00636034   0.00238228   0.0025171    4.824E-4     0.0014568966   
  400          35.92626552   73.08908276   0.00583158   0.00336677   0.00225137   1.5441E-4    0.0013610345   
  401          15.10747172   81.2077       0.00319936   0.00418204   0.00211172   3.2273E-4    0.0016562069   
  402          5.33974448    84.91604483   0.0011283    0.00480203   0.001884     3.3833E-4    0.0017186207   
  403          2.04279034    86.03278276   0.0010144    0.00495972   0.00166194   2.8062E-4    0.0013882759   
  404          0.89868959    86.88612759   7.7651E-4    0.00609052   0.00205098   2.2092E-4    0.0011031034   
  405          0.414589      87.26447586   7.3378E-4    0.00775889   0.00199955   2.1132E-4    0.001157931    
  406          0.20807424    87.49566207   8.1795E-4    0.00815577   0.00179522   4.0328E-4    8.77931E-4     
  407          0.11010031    87.70112759   0.00121963   0.00674113   0.00213135   3.6E-4       0.0010558621   
  408          0.05771183    87.86204483   0.00141666   0.00589929   0.00209546   4.5216E-4    0.001332069    
  409          0.03360641    87.93568621   0.00123111   0.00592998   0.00205534   1.2589E-4    0.0012675862   
  410          0.02115652    87.9669931    7.4529E-4    0.00772778   0.0020061    2.964E-4     0.0011503448   
  411          0.01387476    87.99443793   4.6847E-4    0.01021578   0.00197619   4.3219E-4    0.0010672414   
  412          0.00813465    87.92328621   4.7498E-4    0.01063406   0.00198076   2.9206E-4    8.137931E-4    
  413          0.00610193    87.76637931   4.9269E-4    0.00812732   0.00191826   2.506E-4     9.696552E-4    
  414          0.00383445    87.68468966   7.2451E-4    0.00621707   0.00188403   3.5341E-4    8.186207E-4    
  415          0.00260776    87.86452414   0.00122836   0.00645057   0.00193726   2.7943E-4    9.555172E-4    
  416          0.00182824    88.14412759   0.00233487   0.0060345    0.00179322   2.1146E-4    8.975862E-4    
  417          0.00181734    88.41967241   0.00224386   0.00470619   0.00161007   5.5145E-4    0.001292069    
  418          0.0013841     88.72662414   0.00157207   0.00414181   0.00199771   5.4734E-4    0.0010413793   
  419          0.00137934    88.98606897   0.00112348   0.00427978   0.00201551   2.9255E-4    7.055172E-4    
  420          8.7362E-4     89.0240069    0.00116139   0.00475494   0.00149316   5.6706E-4    8.062069E-4    
  421          0.00112765    88.84661034   0.00130961   0.00622417   0.0018644    5.1162E-4    7.506897E-4    
  422          9.9293E-4     88.70791724   0.00238702   0.00767551   0.00194369   4.0275E-4    7.451724E-4    
  423          0.00115555    88.63393103   0.00385404   0.00900615   0.00183506   5.5118E-4    0.0010175862   
  424          9.4645E-4     88.63782414   0.00404442   0.01159688   0.00179152   5.6739E-4    6.975862E-4    
  425          0.00112172    88.75926207   0.00233449   0.01435162   0.00175587   5.4762E-4    7.068966E-4    
  426          0.00110034    89.01743448   9.8521E-4    0.01390854   0.00201885   0.00198476   6.524138E-4    
  427          0.00108617    89.23626552   1.8908E-4    0.00893706   0.00202702   0.00399321   6.686207E-4    
  428          0.00116066    89.37482069   3.1752E-4    0.00417602   0.00172733   0.00524905   5.744828E-4    
  429          9.2562E-4     89.52267931   4.8498E-4    0.00276748   0.00185917   0.00451631   6.631034E-4    
  430          0.00130559    89.69563793   0.00144665   0.00226357   0.00174164   0.00252284   5.493103E-4    
  431          0.00119897    89.78473103   0.002092     0.00217063   0.00183306   0.00143733   6.355172E-4    
  432          9.2824E-4     89.71944483   0.00133381   0.00233654   0.00215025   6.1673E-4    5.289655E-4    
  433          9.6093E-4     89.66303103   6.242E-4     0.00237619   0.00183899   6.1344E-4    6.724138E-4    
  434          7.749E-4      89.64353448   5.2033E-4    0.00272671   0.00205208   4.1282E-4    6.941379E-4    
  435          0.001057      89.62855172   1.384E-4     0.00351678   0.00194975   2.4677E-4    4.910345E-4    
  436          7.88E-4       89.62520345   5.1307E-4    0.00389738   0.00204999   4.8494E-4    6.262069E-4    
  437          8.1879E-4     89.74268966   0.00115804   0.00295083   0.00189774   3.7863E-4    6.0E-4         
  438          7.681E-4      89.99773103   0.00181881   0.00200903   0.00182137   1.35E-5      3.489655E-4    
  439          7.3403E-4     90.25821379   0.00125636   0.00226437   0.00205632   3.0917E-4    6.341379E-4    
  440          8.6614E-4     90.48555862   3.843E-4     0.00217085   0.0019601    1.3065E-4    4.662069E-4    
  441          7.6835E-4     90.70656207   0.00111447   0.00224892   0.00179661   5.4898E-4    5.62069E-4     
  442          7.3059E-4     90.93452759   0.0021143    0.00379447   0.00182875   4.2377E-4    5.427586E-4    
  443          9.099E-4      91.08799655   0.0023879    0.00715143   0.00198547   3.6188E-4    4.617241E-4    
  444          5.7672E-4     91.12642069   0.00137969   0.01140102   0.00176831   1.105E-4     4.155172E-4    
  445          6.9662E-4     91.11236207   4.4421E-4    0.01337397   0.00207003   7.95E-5      5.462069E-4    
  446          8.6655E-4     91.09028621   1.6107E-4    0.0123309    0.00194999   1.8386E-4    4.275862E-4    
  447          6.7145E-4     91.05067931   2.5318E-4    0.01137034   0.00205511   -2.47E-5     3.844828E-4    
  448          6.6769E-4     90.97112414   2.0616E-4    0.01099975   0.00230932   3.8018E-4    4.382759E-4    
  449          7.5262E-4     90.89564138   2.05E-4      0.00899242   0.00226571   4.192E-4     5.6E-4         
  450          5.5007E-4     90.86694138   1.8388E-4    0.00528644   0.00213767   4.16E-5      4.810345E-4    
  451          6.6441E-4     90.89437931   5.255E-4     0.00299414   0.00205888   3.2956E-4    4.765517E-4    
  452          8.1669E-4     90.96256207   4.1271E-4    0.00236241   0.00222108   2.1336E-4    4.444828E-4    
  453          6.0252E-4     91.05039655   3.8878E-4    0.00210925   0.00272198   4.4024E-4    4.806897E-4    
  454          7.6869E-4     91.13614138   2.7425E-4    0.00206815   0.00395396   -2.55E-5     5.710345E-4    
  455          6.1659E-4     91.15906207   5.5216E-4    0.00210855   0.00529201   2.0285E-4    4.058621E-4    
  456          7.8397E-4     91.09277931   4.4892E-4    0.003836     0.00544962   3.2179E-4    4.962069E-4    
  457          5.8872E-4     90.97605862   4.2351E-4    0.00634477   0.00453551   3.0275E-4    3.865517E-4    
  458          7.2383E-4     90.88653793   9.37E-5      0.00590907   0.00358172   4.0596E-4    4.196552E-4    
  459          6.0655E-4     90.85872414   3.0407E-4    0.00352842   0.00345285   1.8986E-4    4.224138E-4    
  460          6.9486E-4     90.90515862   3.4843E-4    0.00247476   0.0027889    3.1069E-4    4.375862E-4    
  461          6.8907E-4     91.01503103   5.146E-4     0.00203116   0.00255399   1.37E-4      3.810345E-4    
  462          7.5586E-4     91.16162759   4.3077E-4    0.00216816   0.0021446    2.4974E-4    7.534483E-4    
  463          6.0062E-4     91.30620345   3.8925E-4    0.001885     0.00218201   1.7538E-4    6.493103E-4    
  464          5.3786E-4     91.40290345   1.9831E-4    0.0020232    0.00206187   1.2468E-4    5.744828E-4    
  465          5.6666E-4     91.43215517   4.1294E-4    0.00180403   0.00222913   2.3582E-4    7.462069E-4    
  466          7.8535E-4     91.38931034   4.3993E-4    0.00188596   0.00231079   3.97E-5      6.427586E-4    
  467          6.2259E-4     91.26862759   3.387E-4     0.00181377   0.00257817   2.0768E-4    7.896552E-4    
  468          7.5466E-4     91.07275517   4.2233E-4    0.00204814   0.00281947   8.32E-5      0.0010527586   
  469          5.2914E-4     90.82714828   3.357E-4     0.00242217   0.0030196    2.3058E-4    0.0011562069   
  470          6.0141E-4     90.59416897   2.3294E-4    0.00434727   0.00310843   1.6969E-4    0.0014044828   
  471          4.6976E-4     90.45363448   6.04E-5      0.00783451   0.00334479   1.8143E-4    0.0018455172   
  472          5.7666E-4     90.42982069   2.1765E-4    0.00870643   0.00328848   -6.31E-5     0.0025724138   
  473          4.4652E-4     90.51873793   2.3168E-4    0.00622909   0.00301847   1.7707E-4    0.0034444828   
  474          6.2021E-4     90.69572069   2.8254E-4    0.00360367   0.00269445   2.4985E-4    0.0043362069   
  475          4.9921E-4     90.89704483   2.8265E-4    0.00247545   0.00209333   3.1091E-4    0.005207931    
  476          5.3562E-4     91.07421379   2.7897E-4    0.00256776   0.00233735   3.9105E-4    0.0068158621   
  477          3.9269E-4     91.16083103   2.0602E-4    0.0027703    0.00217765   2.7908E-4    0.0088972414   
  478          5.3962E-4     91.14034483   3.4237E-4    0.00279969   0.00232941   2.4025E-4    0.0118537931   
  479          5.36E-4       91.05272759   -4.23E-5     0.00289052   0.00229867   2.2126E-4    0.0160972414   
  480          4.7286E-4     90.9623       1.8272E-4    0.00297823   0.00229373   3.1762E-4    0.0226131034   
  481          5.7614E-4     90.89357586   2.491E-4     0.00306496   0.00231267   4.1963E-4    0.0322644828   
  482          3.9845E-4     90.84139655   1.6023E-4    0.00349302   0.0020485    3.9446E-4    0.0467013793   
  483          3.4621E-4     90.77604138   5.2737E-4    0.00386324   0.00231751   3.9851E-4    0.0671465517   
  484          4.46E-4       90.67296207   3.0183E-4    0.00395917   0.00211294   6.26E-5      0.0970803448   
  485          4.0269E-4     90.53666897   4.8529E-4    0.00335356   0.00187729   3.2801E-4    0.141172069    
  486          5.1145E-4     90.39465172   3.3113E-4    0.00301932   0.00193832   1.4124E-4    0.2074851724   
  487          3.9E-4        90.30919655   2.8248E-4    0.00443058   0.00171327   2.3559E-4    0.3110141379   
  488          4.6245E-4     90.34268621   2.5164E-4    0.01082195   0.00185298   2.975E-4     0.477647931    
  489          4.1924E-4     90.51257586   3.0271E-4    0.01672908   0.00163473   2.7897E-4    0.7571213793   
  490          4.4076E-4     90.76255172   1.0235E-4    0.01250585   0.00177163   4.5221E-4    1.2434275862   
  491          3.7745E-4     90.95983793   1.3113E-4    0.00504151   0.00176196   0.00109963   2.1198151724   
  492          4.3372E-4     90.98217241   6.1E-5       0.00280447   0.00195973   0.00154094   3.7437868966   
  493          4.4997E-4     90.81685517   4.55E-5      0.00290832   0.00191119   0.00121086   6.7933568966   
  494          4.1566E-4     90.53397241   4.14E-5      0.00342026   0.00215803   7.7431E-4    12.4632937931  
  495          4.7559E-4     90.24956207   1.2798E-4    0.00478034   0.00218123   7.4757E-4    22.4305862069  
  496          3.9945E-4     90.08236207   2.0177E-4    0.00741625   0.00207113   5.078E-4     37.9767448276  
  497          3.2859E-4     90.10976207   1.2919E-4    0.01258975   0.00206786   3.0634E-4    57.84329       
  498          4.1597E-4     90.30010345   2.25E-5      0.01695585   0.00205836   3.2787E-4    77.0375451724  
  499          3.9976E-4     90.56425862   9.42E-5      0.01363018   0.0019033    5.6857E-4    90.054927931   
  500          4.0514E-4     90.79928276   1.0369E-4    0.0065474    0.00175342   0.00144106   95.7018137931  
  501          3.6876E-4     90.9337931    4.36E-5      0.00275111   0.00193574   0.00213018   96.7911248276  
  502          3.9959E-4     90.97737931   1.1926E-4    0.00217489   0.00186771   0.00199478   96.3151537931  
  503          4.2903E-4     90.98694138   2.5994E-4    0.00198084   0.00179159   0.00100917   95.8356196552  
  504          3.9417E-4     90.99912069   3.2886E-4    0.00198338   0.00177096   5.4495E-4    95.7612586207  
  505          3.8341E-4     91.02797586   2.9605E-4    0.00201095   0.00176485   3.8394E-4    96.0214972414  
  506          2.9441E-4     91.06998276   1.9276E-4    0.00209053   0.0016903    3.6387E-4    96.4795796552  
  507          4.0334E-4     91.10912414   3.155E-4     0.0022823    0.0018424    1.6928E-4    97.0049368966  
  508          5.0707E-4     91.12926207   3.0776E-4    0.00274985   0.00178589   8.54E-5      97.4894489655  
  509          4.18E-4       91.10874828   2.1006E-4    0.00294604   0.00198147   2.0149E-4    97.8147934483  
  510          2.9634E-4     91.01865172   1.7446E-4    0.00317378   0.00218827   2.4492E-4    97.8908375862  
  511          5.2152E-4     90.83905517   3.1103E-4    0.00300047   0.00197797   2.595E-4     97.7550803448  
  512          6.3634E-4     90.58448621   1.7816E-4    0.00316867   0.00199512   2.7821E-4    97.561957931   
  513          8.1262E-4     90.32511724   1.29E-5      0.00303433   0.00185643   8.82E-5      97.4374137931  
  514          7.9648E-4     90.16713793   1.2467E-4    0.00290581   0.00197014   3.9346E-4    97.5220724138  
  515          6.7621E-4     90.17557586   -5.08E-5     0.00276501   0.00221701   1.9114E-4    97.6946096552  
  516          5.4552E-4     90.34006552   1.0614E-4    0.00240518   0.00235766   2.3054E-4    97.8419172414  
  517          4.0541E-4     90.57765172   1.663E-4     0.00227454   0.00223645   1.6609E-4    97.8322924138  
  518          4.3283E-4     90.78035172   1.8389E-4    0.0022106    0.0025334    1.3406E-4    97.6199134483  
  519          4.4741E-4     90.89528621   3.8581E-4    0.00244035   0.00266102   3.2641E-4    97.3453417241  
  520          6.5465E-4     90.93276897   6.16E-5      0.00241187   0.00317026   1.225E-4     97.1604351724  
  521          6.4024E-4     90.94543103   8.98E-5      0.00292063   0.00353836   1.2388E-4    97.17658       
  522          6.6562E-4     90.99393448   2.9084E-4    0.00315999   0.00373803   1.1214E-4    97.3969172414  
  523          6.3103E-4     91.11501379   1.2507E-4    0.00322706   0.00361351   1.3391E-4    97.7174486207  
  524          7.2938E-4     91.28736207   2.1059E-4    0.00287697   0.00337024   2.7535E-4    97.9638031034  
  525          7.819E-4      91.46653448   3.804E-4     0.00248312   0.00272628   3.8649E-4    98.0437865517  
  526          8.6372E-4     91.59938276   3.525E-4     0.0024714    0.00225114   6.6208E-4    98.0493582759  
  527          8.3459E-4     91.6465       3.5024E-4    0.00300538   0.00208499   8.6493E-4    97.9777965517  
  528          7.8559E-4     91.61121034   3.9788E-4    0.00319258   0.00202319   0.001299     97.9451862069  
  529          8.71E-4       91.52126552   3.0166E-4    0.0031606    0.00193816   0.00220021   97.9662648276  
  530          7.3469E-4     91.41046897   3.9911E-4    0.0027857    0.00192146   0.00244576   98.0383572414  
  531          6.1865E-4     91.30928276   5.3481E-4    0.00244284   0.00185505   0.00153325   98.0561417241  
  532          5.5097E-4     91.23495862   2.9628E-4    0.00239946   0.00182721   6.7826E-4    97.9954010345  
  533          5.1493E-4     91.18558276   2.9297E-4    0.00261014   0.00202891   5.7832E-4    97.8581127586  
  534          5.2759E-4     91.17791034   3.4693E-4    0.00303268   0.0023436    4.8625E-4    97.6754689655  
  535          4.7114E-4     91.21118276   2.7167E-4    0.00331278   0.00229022   6.7539E-4    97.6144603448  
  536          7.5286E-4     91.22180345   3.5735E-4    0.00313362   0.00266816   7.8741E-4    97.6487437931  
  537          6.9472E-4     91.09017931   3.8995E-4    0.00258605   0.00365973   0.00113569   97.7916313793  
  538          7.4948E-4     90.68825862   3.84E-4      0.00211027   0.00396693   0.00100902   97.9476096552  
  539          8.5155E-4     90.03992414   3.1224E-4    0.00192547   0.00342678   7.9829E-4    98.0445762069  
  540          7.9135E-4     89.33193448   3.8342E-4    0.0018705    0.00270025   6.5722E-4    98.0437586207  
  541          6.3872E-4     88.77675862   3.889E-4     0.00187251   0.00222284   3.8571E-4    97.9457368966  
  542          8.5859E-4     88.5078931    4.8896E-4    0.00192834   0.00228749   2.874E-4     97.7956341379  
  543          8.4248E-4     88.42254138   5.3069E-4    0.00186315   0.00237568   3.0599E-4    97.7111758621  
  544          7.9135E-4     87.78867586   4.429E-4     0.00204199   0.00240497   4.4008E-4    97.7137206897  
  545          8.0407E-4     84.20556552   4.8144E-4    0.00248941   0.00241926   3.8434E-4    97.8065396552  
  546          8.2072E-4     76.08444138   5.5689E-4    0.00269679   0.00265767   4.1323E-4    97.8814589655  
  547          8.9862E-4     63.66705862   5.5918E-4    0.00265815   0.00243815   1.3631E-4    97.9007703448  
  548          9.1869E-4     48.93305172   6.5536E-4    0.00236074   0.00254192   1.9548E-4    97.8370234483  
  549          7.9497E-4     33.56917241   8.6449E-4    0.00193927   0.00226551   3.4004E-4    97.7128313793  
  550          9.731E-4      19.97440345   0.00120109   0.00184995   0.0021454    2.3853E-4    97.5884868966  
  551          9.7321E-4     10.40014862   0.00165092   0.0019156    0.0022519    7.0281E-4    97.53751       
  552          8.9717E-4     5.28181483    0.0023281    0.00178712   0.00224761   0.00130232   97.5649048276  
  553          8.261E-4      3.04963931    0.0034053    0.00174848   0.00216961   0.00188628   97.6695727586  
  554          6.8766E-4     1.99418862    0.00546306   0.00170167   0.001905     0.00166935   97.7654110345  
  555          7.0403E-4     1.47255379    0.00925134   0.00177987   0.0020642    0.00100029   97.7871096552  
  556          7.46E-4       0.06147254    0.01617856   0.0017835    0.00200546   0.00118263   97.6926848276  
  557          6.3117E-4     0.03459481    0.02935513   0.00176079   0.00208441   0.00238494   97.536772069   
  558          7.1497E-4     0.0215848     0.05542036   0.00239009   0.00220278   0.0041471    97.3881272414  
  559          9.1862E-4     0.01479393    0.10773507   0.00329291   0.00194444   0.00410045   97.2821482759  
  560          8.7503E-4     0.01078282    0.21847904   0.00336166   0.00204787   0.00280682   97.349552069   
  561          8.279E-4      0.00800601    0.46435577   0.00239371   0.00202185   0.00196097   97.5131937931  
  562          6.1841E-4     0.00567709    1.04065681   0.00179073   0.00193646   0.00191153   97.6863382759  
  563          7.7503E-4     0.0039776     5.02462586   0.00176991   0.00188857   0.00222267   97.7941144828  
  564          0.00108079    0.00251106    9.64487552   0.00169628   0.00180061   0.0022322    97.7833727586  
  565          0.00117338    0.001575      17.77633828  0.00180175   0.0021082    0.00170691   97.6680858621  
  566          7.3131E-4     0.00126987    29.44712759  0.00166358   0.00209019   0.00120756   97.4912175862  
  567          3.3838E-4     7.8902E-4     43.28254828  0.00180708   0.00273612   4.5469E-4    97.3458413793  
  568          3.7659E-4     7.5385E-4     57.24347586  0.00166796   0.00484548   4.1558E-4    97.3333234483  
  569          3.0924E-4     5.677E-4      69.62389655  0.00183286   0.01315236   1.5632E-4    97.4540410345  
  570          3.71E-4       7.1679E-4     78.96102414  0.00171235   0.02107118   2.1098E-4    97.6919544828  
  571          3.51E-4       6.1423E-4     84.51206552  0.00167932   0.01572049   3.772E-4     97.9332458621  
  572          3.9659E-4     6.527E-4      86.98995862  0.00171104   0.00540595   4.0612E-4    98.0552075862  
  573          3.7476E-4     5.575E-4      87.85992069  0.00168864   0.00207618   4.5889E-4    98.0548462069  
  574          3.0907E-4     3.8861E-4     88.31802759  0.00186651   0.00161317   5.0524E-4    97.9170303448  
  575          5.9269E-4     3.8132E-4     88.62942069  0.00206718   0.00179939   6.0254E-4    97.6940455172  
  576          0.00118938    5.1583E-4     88.86687241  0.00201949   0.0018491    5.6853E-4    97.5326613793  
  577          0.00111272    1.4974E-4     89.05505172  0.00169979   0.00191312   5.222E-4     97.4775213793  
  578          5.7828E-4     2.2873E-4     89.21154483  0.0017122    0.00195537   1.5955E-4    97.5486475862  
  579          2.0914E-4     2.2604E-4     89.35936897  0.0016286    0.00191393   2.9335E-4    97.7257855172  
  580          2.4003E-4     2.9435E-4     89.51229655  0.0017892    0.00184341   5.2399E-4    97.8598582759  
  581          3.0197E-4     2.6869E-4     89.68926897  0.0016405    0.00188059   4.7374E-4    97.952162069   
  582          3.2907E-4     2.3575E-4     89.88398966  0.00162547   0.00207764   1.7086E-4    97.8962589655  
  583          3.199E-4      1.8236E-4     90.06247241  0.00160471   0.00187312   1.5791E-4    97.7208948276  
  584          2.4907E-4     1.3216E-4     90.17368621  0.00169476   0.00186459   2.9815E-4    97.5256793103  
  585          4.2724E-4     3.2242E-4     90.17257586  0.0015951    0.00164213   3.4234E-4    97.3519513793  
  586          2.8903E-4     2.6794E-4     90.05232069  0.00155968   0.00193582   3.3939E-4    97.30547       
  587          3.0724E-4     3.6181E-4     89.85622414  0.00180405   0.00172551   3.5689E-4    97.3420375862  
  588          2.8724E-4     1.1542E-4     89.64596552  0.00154343   0.00177848   6.5897E-4    97.5147258621  
  589          3.7083E-4     3.3053E-4     89.48221034  0.00173086   0.00180405   5.1575E-4    97.6865972414  
  590          5.579E-4      1.3898E-4     89.43586897  0.00183883   0.00173591   5.4802E-4    97.8415751724  
  591          8.2152E-4     1.6005E-4     89.50094483  0.00164719   0.00231311   6.2138E-4    97.8876765517  
  592          5.56E-4       2.4523E-4     89.64693793  0.00177433   0.00224933   9.043E-4     97.8680168966  
  593          2.9272E-4     3.4296E-4     89.81586207  0.00152947   0.00248244   0.00138953   97.7672651724  
  594          2.9438E-4     1.8039E-4     89.94307586  0.00174755   0.00195244   0.0026416    97.6868348276  
  595          3.3624E-4     2.6412E-4     89.98977241  0.0015681    0.00206419   0.00476528   97.6792824138  
  596          3.0352E-4     1.1218E-4     89.98456897  0.00162471   0.00179483   0.00546608   97.7423558621  
  597          3.7793E-4     2.5558E-4     89.95856207  0.0014697    0.00180221   0.00340058   97.8283734483  
  598          4.1048E-4     1.8682E-4     89.95397931  0.00154893   0.0016021    0.00147229   97.9342551724  
  599          3.1076E-4     -5.99E-5      90.00658966  0.00162948   0.00194987   7.6549E-4    98.0315348276  
  600          3.0886E-4     -2.92E-6      90.117       0.00156295   0.00191049   5.5812E-4    97.9978172414  
  601          3.67E-4       9.06E-5       90.24140345  0.00171658   0.00192431   3.8404E-4    97.9256482759  
  602          3.4335E-4     9.49E-5       90.34736897  0.00155568   0.00192429   5.2904E-4    97.7778658621  
  603          3.2521E-4     -6.12E-5      90.41887241  0.00163926   0.00212068   3.2921E-4    97.6321548276  
  604          3.8517E-4     5.26E-5       90.44844483  0.00146278   0.00156973   3.119E-4     97.5327027586  
  605          4.6486E-4     1.0725E-4     90.42134828  0.00172094   0.00176      1.6773E-4    97.4979137931  
  606          6.1938E-4     -2.22E-5      90.35553448  0.00156813   0.00191263   3.4777E-4    97.5372096552  
  607          5.2845E-4     1.7958E-4     90.25151379  0.00161014   0.00209145   2.4752E-4    97.6299924138  
  608          3.2145E-4     1.9946E-4     90.14195862  0.00167948   0.00239155   2.34E-4      97.7242141379  
  609          3.9941E-4     1.8261E-4     90.07835862  0.00173487   0.0023713    3.4012E-4    97.8017241379  
  610          3.9031E-4     2.5259E-4     90.09394483  0.00170429   0.00239888   1.0624E-4    97.7667662069  
  611          3.8666E-4     2.1653E-4     90.19052069  0.00158213   0.00227079   1.6E-5       97.7245686207  
  612          3.3966E-4     1.2324E-4     90.34961379  0.00160053   0.00244284   -6.61E-5     97.63229       
  613          4.6655E-4     8.75E-5       90.52041034  0.00172972   0.00212417   4.94E-5      97.5555482759  
  614          4.3028E-4     6.46E-5       90.65736897  0.00160963   0.00198067   -3.23E-5     97.5078582759  
  615          3.2131E-4     1.9686E-4     90.7607      0.00172544   0.00162866   -1.1098E-4   97.5324344828  
  616          2.6321E-4     -1.32E-5      90.8093931   0.00158062   0.00169277   6.94E-5      97.6222468966  
  617          3.0676E-4     -4.2E-7       90.83064138  0.00158829   0.00163885   5.39E-5      97.7552731034  
  618          3.9197E-4     1.3299E-4     90.82023793  0.00165345   0.00171411   4.1545E-4    97.8993851724  
  619          4.4641E-4     6.32E-5       90.77286552  0.00165247   0.00181742   7.073E-4     97.9962455172  
  620          3.0835E-4     1.3862E-4     90.72429655  0.00163369   0.00186295   0.00113113   98.0514486207  
  621          3.3021E-4     7.31E-5       90.68452414  0.00160194   0.00183307   9.9289E-4    98.0289337931  
  622          3.701E-4      5.81E-5       90.66027586  0.001569     0.00199815   6.1484E-4    97.9874868966  
  623          4.0641E-4     1.7849E-4     90.65473793  0.00150477   0.00201773   2.9884E-4    97.9487451724  
  624          2.9748E-4     4.3E-5        90.66573448  0.00144895   0.00207069   1.4667E-4    97.9023124138  
  625          3.8445E-4     9.44E-5       90.68538966  0.00169537   0.00204334   1.476E-4     97.8995134483  
  626          4.5355E-4     2.07E-5       90.71123103  0.00169068   0.00190486   -1.29E-5     97.9040413793  
  627          4.1883E-4     6.29E-5       90.7368      0.00158073   0.00180562   3.0562E-4    97.9447713793  
  628          4.1159E-4     8.55E-6       90.76831724  0.0015846    0.00193233   1.0627E-4    98.0274613793  
  629          3.8076E-4     1.2618E-4     90.80968966  0.00154826   0.00191367   1.294E-4     98.0714803448  
  630          3.9155E-4     4.58E-5       90.84752414  0.00163914   0.0019713    1.0967E-4    98.0666617241  
  631          3.3545E-4     -1.84E-5      90.85881034  0.00152161   0.00187458   2.0849E-4    98.0425131034  
  632          4.8207E-4     7.04E-5       90.83367241  0.00155102   0.00179707   2.7652E-4    98.0119306897  
  633          2.791E-4      -3.55E-5      90.79439655  0.00150476   0.00166981   2.6386E-4    97.9740893103  
  634          4.3662E-4     1.2258E-4     90.77531724  0.00164343   0.00193177   4.6845E-4    97.9454865517  
  635          3.461E-4      1.1675E-4     90.79726207  0.00156781   0.00182287   3.1123E-4    97.979157931   
  636          3.171E-4      -2.41E-5      90.85084138  0.00143019   0.00179644   3.219E-4     97.9888031034  
  637          3.2438E-4     -3.3E-5       90.92922414  0.00162311   0.00195058   1.6053E-4    98.0409275862  
  638          4.3855E-4     6.69E-5       91.00538276  0.0015985    0.0017442    2.9667E-4    98.0906034483  
  639          4.2403E-4     -7.96E-5      91.05300345  0.00169699   0.00168729   4.3601E-4    98.1289244828  
  640          4.4007E-4     1.2517E-4     91.06507931  0.00155565   0.00142519   0.00152971   98.1407589655  
  641          4.1834E-4     7.37E-6       91.04354828  0.00159124   0.00129406   0.00405949   98.1360106897  
  642          3.2238E-4     -6.34E-5      90.9851931   0.00152222   0.00168842   0.0058807    98.1078851724  
  643          3.4393E-4     -2.1007E-4    90.8966931   0.0015165    0.00151589   0.0056987    98.0612993103  
  644          4.7269E-4     -2.89E-5      90.79056897  0.00148259   0.00149034   0.0043306    98.0146962069  
  645          5.159E-4      3.43E-5       90.6795931   0.00165024   0.00158938   0.0038283    98.015372069   
  646          4.5972E-4     7.7E-5        90.57593103  0.00163305   0.00178066   0.00310695   97.9845665517  
  647          4.6879E-4     -5.72E-5      90.4912      0.00158889   0.00211211   0.00207076   97.9903275862  
  648          3.999E-4      1.0901E-4     90.4324931   0.0016143    0.00241098   0.00108677   97.9835624138  
  649          3.891E-4      9.35E-5       90.39543793  0.00153695   0.00323327   8.9648E-4    97.9690617241  
  650          3.5283E-4     1.914E-4      90.36687931  0.00166403   0.00327085   4.5381E-4    97.8980144828  
  651          4.0334E-4     -4.3E-5       90.35856207  0.00163225   0.00262149   5.5689E-4    97.8090203448  
  652          4.1959E-4     1.09E-5       90.38207586  0.0016046    0.00187014   4.8268E-4    97.7027982759  
  653          4.991E-4      2.26E-5       90.45549655  0.00172719   0.00150694   3.1365E-4    97.6043413793  
  654          4.8641E-4     2.46E-5       90.57683793  0.00171692   0.0016038    4.1602E-4    97.5317937931  
  655          4.3935E-4     -3.67E-5      90.71334483  0.00163574   0.00163057   6.6722E-4    97.485782069   
  656          5.0079E-4     4.5E-7        90.85022759  0.00167883   0.00170668   0.00101683   97.4991286207  
  657          4.5741E-4     1.4176E-4     90.96120345  0.00160578   0.00160585   0.00121994   97.5793137931  
  658          5.0614E-4     1.3864E-4     91.0346069   0.00174542   0.00167016   0.00138625   97.7064931034  
  659          4.9331E-4     2.27E-5       91.06664483  0.0017374    0.00190328   0.00117359   97.8620282759  
  660          5.1517E-4     7.89E-5       91.05315172  0.00174373   0.00205402   0.00139166   98.0067441379  
  661          6.0179E-4     -6.48E-6      90.98794828  0.00164623   0.00184103   0.00164875   98.1144334483  
  662          4.8438E-4     1.3E-5        90.88048966  0.00176414   0.00171626   0.00140099   98.1965034483  
  663          4.5714E-4     -2.77E-6      90.74894828  0.00176976   0.00157809   8.0121E-4    98.2253555172  
  664          5.5997E-4     -1.0395E-4    90.62268276  0.00190503   0.00163397   3.2385E-4    98.1907172414  
  665          4.3366E-4     -3.83E-5      90.5362931   0.00182187   0.0014842    1.9899E-4    98.1604762069  
  666          4.7314E-4     -1.0014E-4    90.49042759  0.00191231   0.00142278   8.04E-5      98.1302837931  
  667          4.5324E-4     -7.36E-5      90.49622069  0.00199164   0.00191569   4.63E-5      98.0897582759  
  668          6.5362E-4     -6.91E-5      90.55428966  0.00213527   0.00172861   6.79E-5      98.0642082759  
  669          4.5314E-4     -1.0248E-4    90.64627931  0.00227228   0.00177831   2.9895E-4    98.0937106897  
  670          3.4845E-4     -4.45E-5      90.73685172  0.00249941   0.00187985   3.653E-4     98.1764175862  
  671          6.4431E-4     1.74E-5       90.80261034  0.00265715   0.00171979   0.0010134    98.1995089655  
  672          4.1497E-4     1.4E-5        90.83813103  0.00286835   0.00178769   0.00146726   98.2624375862  
  673          4.1852E-4     -1.93E-5      90.83851379  0.00323293   0.00184586   0.00146765   98.286377931   
  674          5.34E-4       -1.52E-5      90.80548276  0.00394029   0.00150216   0.00110723   98.2677931034  
  675          5.6076E-4     -1.0917E-4    90.75117241  0.00445294   0.00152207   8.3195E-4    98.2048689655  
  676          5.1952E-4     -1.1342E-4    90.67682069  0.00553277   0.00161475   4.9118E-4    98.1135558621  
  677          5.5917E-4     5.19E-6       90.61724828  0.0070224    0.00175103   2.8408E-4    97.9962406897  
  678          4.7228E-4     2.23E-5       90.58437931  0.00961807   0.00156001   3.3233E-4    97.9243886207  
  679          5.9128E-4     1.0882E-4     90.57366207  0.01291086   0.00133054   1.5662E-4    97.8269858621  
  680          4.3445E-4     8.11E-5       90.58082414  0.01754628   0.00169668   3.7287E-4    97.7941268966  
  681          5.5503E-4     1.3911E-4     90.6160931   0.02389917   0.00163312   2.5986E-4    97.7698855172  
  682          6.8086E-4     2.68E-5       90.66492759  0.03139833   0.00158864   6.87E-5      97.7877851724  
  683          6.2324E-4     -3.6E-5       90.70383793  0.04145089   0.00170344   2.5884E-4    97.8369513793  
  684          5.2972E-4     6.63E-5       90.71874138  0.0535164    0.00164929   1.4746E-4    97.9139165517  
  685          7.0255E-4     -6.32E-5      90.71682414  0.06864256   0.00166762   3.7121E-4    97.9536137931  
  686          6.0303E-4     -5.03E-5      90.68843103  0.08990836   0.00178211   6.6332E-4    98.004892069   
  687          5.7245E-4     4.46E-5       90.64947241  0.12081496   0.00149062   0.00165256   98.0206617241  
  688          7.3797E-4     0.00309316    90.60091724  0.1683674    0.00163921   0.00330577   98.0379334483  
  689          6.6772E-4     0.01131414    90.53341724  0.24343538   0.00156567   0.00450913   98.0623344828  
  690          6.8921E-4     0.01296091    90.44212759  0.27479041   0.00169247   0.00332179   98.0696765517  
  691          5.6131E-4     0.00461593    90.33058966  0.29422317   0.0017389    0.00174234   98.1051286207  
  692          6.1362E-4     -4.89E-5      90.20170345  0.31717128   0.0016828    4.8653E-4    98.1353389655  
  693          6.2797E-4     6.97E-5       90.07676207  0.35038948   0.00183531   1.9361E-4    98.1642489655  
  694          8.8621E-4     1.5275E-4     89.98145172  0.39940721   0.00196167   1.9093E-4    98.2160941379  
  695          5.9514E-4     -1.82E-5      89.92374483  0.45852745   0.00183015   1.1425E-4    98.2251831034  
  696          0.00112707    2.8242E-4     89.89931379  0.53949197   0.00195576   9.76E-5      98.2060551724  
  697          0.00126165    6.1815E-4     89.87543793  0.6725559    0.0017896    1.3586E-4    98.1633855172  
  698          7.0631E-4     4.9621E-4     89.8516931   0.88378562   0.00160735   1.3053E-4    98.0538041379  
  699          8.4814E-4     1.8329E-4     89.84150345  1.20936297   0.00180095   1.6426E-4    97.9465727586  
  700          6.4307E-4     2.392E-4      89.8240069   1.72160072   0.00159569   2.3807E-4    97.8003934483  
  701          7.5634E-4     2.87E-5       89.78561724  2.53292621   0.00160927   5.03E-5      97.6780762069  
  702          7.7217E-4     5.9E-5        89.69184828  3.76436521   0.00183213   3.6779E-4    97.6047282759  
  703          7.8976E-4     2.2531E-4     89.51576552  5.58102828   0.00158482   4.4485E-4    97.5415865517  
  704          8.0069E-4     3.43E-6       89.24881724  8.1820869    0.0018555    9.828E-4     97.5752824138  
  705          7.8079E-4     2.0518E-4     88.90258621  11.76706552  0.00175381   0.00131571   97.6509962069  
  706          7.4114E-4     1.3312E-4     88.45118966  16.51810241  0.00154068   9.546E-4     97.7567724138  
  707          6.9797E-4     -6.8E-6       87.80864828  22.53172862  0.00191306   6.3135E-4    97.9043068966  
  708          7.6572E-4     1.72E-6       86.9358931   29.77498103  0.00163353   2.6892E-4    98.0246103448  
  709          7.7276E-4     1.6543E-4     85.89008621  38.04313448  0.00199543   3.6979E-4    98.0971696552  
  710          9.4503E-4     9.31E-5       84.86402759  46.9345931   0.00167125   2.249E-4     98.0816203448  
  711          8.1755E-4     2.63E-5       83.59247241  55.91340345  0.00175242   2.23E-6      98.0347017241  
  712          8.8717E-4     2.1713E-4     80.98899655  64.44767586  0.00173177   8.41E-5      97.8944475862  
  713          8.3679E-4     4.57E-5       75.8982069   72.08728621  0.00184333   6.43E-5      97.6968686207  
  714          0.00105348    8.22E-6       67.72572069  78.52461724  0.00191097   1.9862E-4    97.4698558621  
  715          9.1883E-4     7.94E-5       56.92033103  83.61227241  0.00166905   5.81E-6      97.2260962069  
  716          0.00104735    8.84E-5       44.52626207  87.41121724  0.00173947   2.6189E-4    97.0711796552  
  717          5.5855E-4     4.89E-5       32.14556207  90.05157586  0.00193729   0.00105028   96.9439803448  
  718          0.00123165    3.18E-5       21.48505     91.72012069  0.00164123   0.0020915    96.935832069   
  719          0.00160541    -8.5E-5       13.73626138  92.63857931  0.00175688   0.00359414   96.9800034483  
  720          0.00178731    -1.66E-5      8.73096897   93.05614483  0.00169416   0.00336046   97.0865058621  
  721          0.0017891     3.47E-5       5.59190241   93.18977586  0.00177402   0.00196234   97.2544131034  
  722          0.0017279     1.1634E-4     3.6415231    93.25196552  0.00179271   8.2327E-4    97.3944965517  
  723          0.00120359    1.346E-4      2.42479379   93.39546207  0.00185704   2.1076E-4    97.5493227586  
  724          0.00122131    6.46E-6       1.68273862   93.68806552  0.00168416   2.9505E-4    97.6586106897  
  725          8.1162E-4     4.09E-5       1.24237593   94.14391724  0.00174363   2.0643E-4    97.7329065517  
  726          0.001167      1.8613E-4     0.93246347   94.71654828  0.0016118    7.03E-5      97.7032917241  
  727          8.1821E-4     2.15E-5       0.48173499   95.32242759  0.00165476   1.7963E-4    97.6409341379  
  728          9.3238E-4     1.7796E-4     0.26432481   95.85913793  0.0016572    6.24E-5      97.595027931   
  729          0.00123579    2.6967E-4     0.15850452   96.23028276  0.00150722   3.09E-5      97.501917931   
  730          8.5031E-4     1.9308E-4     0.10376059   96.38273793  0.00168946   3.7012E-4    97.4465824138  
  731          0.00112655    2.7773E-4     0.07394312   96.31293103  0.00147289   6.3897E-4    97.3575544828  
  732          9.7793E-4     2.0721E-4     0.05507727   96.05536897  0.00149752   0.00132352   97.3528796552  
  733          9.6183E-4     -3.86E-5      0.04119952   95.67790345  0.00177877   0.00106084   97.3271168966  
  734          0.00107241    -2.5406E-4    0.0294749    95.27170345  0.00166059   1.5049E-4    97.2725434483  
  735          0.00104697    1.5682E-4     0.01921141   94.93681379  0.00181871   -9.86E-5     97.2280096552  
  736          0.00108593    -5.26E-5      0.01172464   94.74128621  0.00180096   2.83E-5      97.1809831034  
  737          0.00137617    -7.06E-5      0.00697535   94.71596207  0.0015996    -8.85E-6     96.9904341379  
  738          0.00113359    1.316E-4      0.00396618   94.85092069  0.00151087   3.32E-5      96.8684        
  739          0.00121176    -1.48E-6      0.00262159   95.1015931   0.00166205   1.1738E-4    96.7135244828  
  740          8.7145E-4     1.7896E-4     0.00197676   95.4427      0.00169773   4.6891E-4    96.56503       
  741          0.00128648    2.6819E-4     0.0012641    95.80055517  0.00143694   0.00116775   96.4106048276  
  742          0.00112431    2.9108E-4     0.00116291   96.1140069   0.00160118   0.00158504   96.3239382759  
  743          0.00111503    4.6614E-4     9.6454E-4    96.34994483  0.0016213    7.51E-4      96.2805062069  
  744          8.5503E-4     5.7101E-4     0.00112291   96.49945517  0.00154108   8.98E-5      96.2649862069  
  745          0.00129259    2.0662E-4     8.3508E-4    96.55192414  0.00187154   2.82E-5      96.2256310345  
  746          0.00110014    5.09E-5       0.00108251   96.53577586  0.0017359    1.4695E-4    96.1374803448  
  747          0.0010609     1.2945E-4     0.00102506   96.49188621  0.00157185   -4.01E-5     96.0882924138  
  748          0.00110297    1.45E-5       7.1519E-4    96.45418966  0.00167883   -6.44E-5     96.0276972414  
  749          0.00105462    4.76E-5       3.897E-4     96.43137931  0.00162266   1.924E-4     95.9733662069  
  750          0.00101907    5.04E-5       3.3076E-4    96.45581034  0.00160044   -2.0668E-4   95.7773575862  
  751          0.00104497    -2.73E-5      7.79E-5      96.52072414  0.00178357   -2.3574E-4   94.83437       
  752          0.00116907    -2.7316E-4    -2.66E-5     96.60027586  0.00168211   -4.25E-5     92.0994689655  
  753          0.00106962    -2.1699E-4    1.3466E-4    96.66552069  0.00162246   -3.2768E-4   86.587972069   
  754          9.6069E-4     -2.04E-5      -9.57E-5     96.70135172  0.00157607   -1.6554E-4   78.1369341379  
  755          0.001037      -3.43E-5      -1.834E-4    96.67971034  0.00189175   -1.9118E-4   67.2849372414  
  756          0.00125148    -1.3934E-4    7.87E-6      96.58947241  0.00162729   1.3137E-4    54.9381968966  
  757          0.00114314    -1.434E-4     2.739E-4     96.4392      0.00188004   -2.1068E-4   41.9995051724  
  758          0.00100062    -2.81E-5      1.7248E-4    96.25169655  0.00199542   -2.3309E-4   29.7692041379  
  759          0.00115962    -4.69E-5      -2.17E-5     96.04052414  0.00168129   4.31E-5      19.64933       
  760          0.00132607    2.0225E-4     1.0672E-4    95.83984483  0.00172766   7.45E-5      12.3126313793  
  761          0.00110045    -6.66E-5      1.9646E-4    95.6735069   0.0020534    -1.1753E-4   7.4999124138   
  762          0.00117428    -1.7402E-4    1.091E-4     95.55393448  0.00165224   1.7521E-4    4.5897024138   
  763          0.00138134    4.7E-5        2.6007E-4    95.4827931   0.00150371   -6.16E-5     2.8544634483   
  764          0.00114338    1.49E-5       2.8577E-4    95.44214138  0.00182572   5.52E-5      1.815122069    
  765          0.00107414    -4.45E-5      1.5748E-4    95.42172414  0.00180412   5.58E-5      1.1850186207   
  766          0.00122259    -5.68E-5      1.5E-5       95.41733448  0.00171694   2.68E-4      0.796682069    
  767          0.001155      1.9534E-4     1.9E-4       95.42787241  0.00166217   -5.38E-5     0.5476558621   
  768          0.00117741    1.41E-5       3.7773E-4    95.45163793  0.0017541    -6.09E-5     0.385377931    
  769          0.00113803    -1.1177E-4    1.7945E-4    95.49212759  0.0020317    -1.5426E-4   0.2762010345   
  770          0.00136928    1.3743E-4     -3.73E-5     95.56164138  0.00174052   1.6844E-4    0.2019137931   
  771          0.0014291     -4.22E-5      2.8E-7       95.68005862  0.00180359   -2.47E-5     0.1485675862   
  772          0.00115597    -7.73E-5      3.0459E-4    95.86161034  0.00195096   -9.07E-5     0.1125586207   
  773          0.00130065    -5.84E-5      4.22E-5      96.0960931   0.00161923   -1.7768E-4   0.0852589655   
  774          0.00132835    4.07E-5       7.57E-5      96.37149655  0.00175741   1.1601E-4    0.0660217241   
  775          0.00126269    -1.0507E-4    2.6091E-4    96.66424483  0.00163032   -3.39E-5     0.0512403448   
  776          0.00157562    -6.04E-5      1.6975E-4    96.94284828  0.00197912   -5.91E-5     0.0404413793   
  777          0.00189114    6.79E-5       8.21E-5      97.17157931  0.00189449   -2.97E-5     0.0319372414   
  778          0.00154862    8.93E-5       1.631E-4     97.3098931   0.00184458   1.5269E-4    0.0254686207   
  779          0.00155662    -1.47E-5      1.9417E-4    97.37421379  0.00192947   9.48E-5      0.0207844828   
  780          0.00165724    5.03E-5       4.68E-5      97.35250345  0.00200031   5.28E-5      0.0167596552   
  781          0.00132652    5.62E-5       3.34E-6      97.26509655  0.00187343   -1.3023E-4   0.0145144828   
  782          0.00197017    1.5182E-4     1.2353E-4    97.17416552  0.00180497   1.1985E-4    0.0108575862   
  783          0.00157886    8.12E-5       1.9807E-4    97.09253103  0.00185955   -1.2646E-4   0.0085393103   
  784          0.00128331    -1.14E-5      -3.84E-6     97.07275172  0.0020387    6.85E-6      0.0075034483   
  785          0.00156648    1.3589E-4     2.24E-5      97.12768966  0.00169603   4.78E-5      0.0057065517   
  786          0.00190924    -6.25E-5      1.2897E-4    97.24254828  0.0017113    3.2259E-4    0.0054362069   
  787          0.00196069    -5.52E-5      1.9117E-4    97.39054828  0.00166867   5.18E-5      0.0056193103   
  788          0.0016691     4.24E-5       4.112E-4     97.52944828  0.002048     1.8873E-4    0.00303        
  789          0.00144545    2.2114E-4     1.0681E-4    97.58355862  0.00172223   3.09E-5      0.0031786207   
  790          0.00156441    -7.97E-5      3.07E-5      97.4971      0.00165482   1.1885E-4    0.0022848276   
  791          0.00206755    -2.71E-5      2.4712E-4    97.23624828  0.00152725   -1.4036E-4   0.0025213793   
  792          0.00188752    -8.38E-5      2.7623E-4    96.7801      0.00192515   -1.2694E-4   0.00266        
  793          0.00200728    -6.7E-5       -1.26E-5     96.16566207  0.00168131   -8.63E-5     0.0022203448   
  794          0.00198003    4.88E-5       -3.78E-5     95.44625172  0.00165448   -1.4046E-4   0.00216        
  795          0.00273752    -1.2277E-4    -4.96E-5     94.71524828  0.00146099   1.94E-5      0.0016641379   
  796          0.00212003    -9.89E-5      1.55E-6      94.0832069   0.00169504   -1.1615E-4   0.0026855172   
  797          0.00204238    -6.3E-5       -6.54E-5     93.63008276  0.0017251    -1.6429E-4   0.0020455172   
  798          0.00280986    -1.01E-5      4.62E-5      93.4045931   0.00186878   -1.2436E-4   0.0021203448   
  799          0.00213348    -9.31E-5      -4.66E-5     93.45216552  0.00190781   -5.53E-5     0.0023268966   
  800          0.00130917    9.48E-5       -4.379E-4    93.7684931   0.00176533   -1.393E-4    9.675862E-4    
  801          0.00122721    3.8349E-4     -6.83E-5     94.29401034  0.00192241   -1.523E-4    9.731034E-4    
  802          0.00132997    5.5484E-4     -9.3E-5      94.96086207  0.00188631   -2.0521E-4   7.744828E-4    
  803          0.00132976    9.2213E-4     -3.86E-5     95.63407241  0.00176824   -2.3007E-4   8.782759E-4    
  804          0.00109655    0.00144929    -1.07E-5     96.20568276  0.0016752    1.1778E-4    8.575862E-4    
  805          0.0011119     0.00171734    -1.94E-5     96.58816552  0.0018745    1.6916E-4    7.772414E-4    
  806          0.00119621    0.00178339    1.0725E-4    96.71346207  0.00190911   -2.5528E-4   7.448276E-4    
  807          0.00131859    0.00164422    5.44E-5      96.56053448  0.00198445   4.08E-5      8.672414E-4    
  808          0.00105272    0.00157447    1.44E-5      96.18390345  0.00209033   -5.15E-5     8.048276E-4    
  809          0.00121355    0.00133542    -3.02E-5     95.67772759  0.00201253   1.69E-5      8.655172E-4    
  810          0.00112434    0.00123051    7.86E-5      95.15454138  0.00204325   1.0964E-4    9.451724E-4    
  811          0.00104152    0.00117913    3.1996E-4    94.72217586  0.00240821   -3.32E-5     0.0010082759   
  812          0.00109566    0.00116192    1.06E-5      94.44737241  0.00229172   -1.2644E-4   0.0010955172   
  813          0.00145745    8.8447E-4     2.75E-5      94.39415517  0.00288052   -4.54E-5     0.0012903448   
  814          0.00120841    7.431E-4      8.2E-5       94.56390345  0.00328193   5.52E-5      9.865517E-4    
  815          0.00115345    7.8046E-4     -2.22E-5     94.89985517  0.00381504   3.06E-5      8.096552E-4    
  816          0.00100724    5.0521E-4     -2.1806E-4   95.32900345  0.00493947   -2.2435E-4   0.0010568966   
  817          0.00127134    4.986E-4      4.03E-5      95.73487931  0.0064822    -1.2824E-4   0.0010924138   
  818          0.00156879    6.8986E-4     1.31E-5      96.00663793  0.00768765   -2.4034E-4   0.0010086207   
  819          0.00110028    4.3321E-4     -1.94E-5     96.05795862  0.00952726   -9.63E-5     9.731034E-4    
  820          0.00114648    4.9628E-4     -2.0825E-4   95.84454138  0.01092688   -2.8948E-4   6.562069E-4    
  821          0.00128959    5.0343E-4     -1.5533E-4   95.3800931   0.01281481   -2.1E-5      7.544828E-4    
  822          0.00121134    6.5599E-4     9.36E-6      94.71512759  0.01508535   2.62E-6      0.0012251724   
  823          0.00135272    7.2475E-4     -2.8122E-4   93.97626552  0.01767789   -1.2177E-4   9.52069E-4     
  824          0.00149628    7.6571E-4     -2.664E-4    93.30435517  0.02136291   -2.5918E-4   0.0013537931   
  825          0.00143431    9.0493E-4     -6.73E-5     92.80516552  0.02659042   3.3452E-4    9.52069E-4     
  826          0.00121914    9.9201E-4     6.38E-5      92.57770345  0.03357844   -1.5507E-4   0.001237931    
  827          0.00122228    0.0010199     1.296E-4     92.67157931  0.04433004   -9.14E-5     0.0013603448   
  828          0.00159017    0.00113933    2.1022E-4    93.07516207  0.05853037   2.2735E-4    0.001317931    
  829          0.001921      0.00155385    1.4487E-4    93.71135862  0.0802479    -1.7885E-4   0.0012103448   
  830          0.00163755    0.00135663    1.97E-5      94.44672414  0.11092979   1.8985E-4    0.0014344828   
  831          0.00182883    0.00149872    3.4264E-4    95.21078966  0.15567629   -2.8985E-4   0.0012231034   
  832          0.00212783    0.00126977    1.57E-4      95.83675862  0.22138821   -2.14E-5     0.0013858621   
  833          0.002101      0.00136221    3.3238E-4    96.20407586  0.31594193   1.9041E-4    0.0016262069   
  834          0.00200366    8.8004E-4     4.36E-5      96.26594828  0.4568373    3.23E-5      0.00135        
  835          0.00193465    7.8247E-4     3.6948E-4    95.99567241  0.66910249   7.55E-5      0.0020534483   
  836          0.00262979    5.2245E-4     6.9E-5       95.50621034  0.99349499   -1.877E-4    0.0020565517   
  837          0.0025049     6.5414E-4     2.2544E-4    94.86264138  1.50513971   2.0381E-4    0.0022282759   
  838          0.00290038    1.7732E-4     -9.83E-5     94.1582      2.12710586   -2.0762E-4   0.0026086207   
  839          0.00233362    4.6685E-4     -1.62E-5     93.52733103  2.37501414   1.4773E-4    0.0020175862   
  840          0.00265803    3.5152E-4     1.3901E-4    93.04306207  2.74403862   7.22E-5      0.0020013793   
  841          0.00316669    1.7068E-4     -1.3531E-4   92.71771034  3.31121448   -2.318E-4    0.0023110345   
  842          0.00423003    5.691E-4      2.3117E-4    92.55213448  4.17912276   1.3032E-4    0.0024417241   
  843          0.00370359    4.8067E-4     2.2479E-4    92.52953793  5.49952965   -8.56E-5     0.0024317241   
  844          0.00406852    1.7672E-4     -1.3796E-4   92.61165862  7.55911414   5.24E-6      0.0030089655   
  845          0.00456338    3.5045E-4     2.2124E-4    92.79101379  10.73176897  1.9211E-4    0.0029337931   
  846          0.00469514    2.0871E-4     1.5234E-4    93.07452414  15.42966448  -1.2804E-4   0.0031575862   
  847          0.00513693    3.42E-4       -1.41E-5     93.46426207  22.00398586  2.0921E-4    0.0035706897   
  848          0.00513269    4.3365E-4     2.4827E-4    93.94014138  30.53595207  1.9069E-4    0.0039424138   
  849          0.00663314    4.2458E-4     4.0801E-4    94.46314138  40.63275517  1.8074E-4    0.0049017241   
  850          0.00641797    2.9622E-4     2.6784E-4    94.72206207  51.51821034  -1.1652E-4   0.00544        
  851          0.02341776    5.8267E-4     4.8361E-4    94.24623448  62.20096552  9.12E-5      0.0065634483   
  852          0.01628452    5.2984E-4     4.4142E-4    92.36890345  71.69527586  5.66E-5      0.0066413793   
  853          0.01909386    6.9884E-4     4.7647E-4    88.34862414  79.3688      1.53E-5      0.0058034483   
  854          0.01761586    4.3542E-4     3.8238E-4    81.7025      85.03697931  1.6402E-4    0.0068872414   
  855          0.01831955    9.3665E-4     2.1039E-4    72.50379655  88.83037241  2.1708E-4    0.0070348276   
  856          0.01711855    9.5519E-4     4.6154E-4    61.33464483  91.08718621  1.6039E-4    0.0056510345   
  857          0.01748162    8.9672E-4     2.6552E-4    49.21193793  92.22024483  1.1414E-4    0.0044306897   
  858          0.01299548    0.001074      5.5413E-4    37.41056552  92.63952414  -3.86E-5     0.0042372414   
  859          0.01449576    5.846E-4      3.1943E-4    27.04745103  92.65912414  2.3487E-4    0.0048975862   
  860          0.01810728    6.1237E-4     1.1182E-4    18.71492448  92.53281034  3.97E-5      0.0054034483   
  861          0.01929755    6.5584E-4     5.2204E-4    12.55366655  92.46241724  1.2567E-4    0.0047368966   
  862          0.01554376    4.1703E-4     5.4321E-4    8.33409172   92.54753793  2.0507E-4    0.0043868966   
  863          0.01689221    5.6428E-4     4.972E-4     5.6077       92.84224483  3.5312E-4    0.0058041379   
  864          0.01734176    4.2353E-4     5.8022E-4    3.85747448   93.31078966  -1.9048E-4   0.0058827586   
  865          0.01603124    2.0484E-4     1.3134E-4    2.77122035   93.87703103  9.02E-5      0.0048831034   
  866          0.01432976    5.9624E-4     4.7024E-4    2.11114276   94.47881724  1.6229E-4    0.0055275862   
  867          0.01356224    4.3505E-4     4.8056E-4    1.67854276   95.02047586  2.651E-4     0.0051565517   
  868          0.01141024    4.2608E-4     3.4887E-4    1.3884731    95.44791724  7.94E-5      0.0049037931   
  869          0.01912424    4.1023E-4     4.7074E-4    1.19678441   95.74262414  -1.4919E-4   0.0046362069   
  870          0.01775545    2.8645E-4     6.6998E-4    1.05071514   95.91175517  2.7783E-4    0.004697931    
  871          0.01740948    4.2577E-4     4.2294E-4    0.92439335   95.96703448  3.3319E-4    0.0040848276   
  872          0.01114048    9.75E-5       0.00251401   0.84041714   95.94359655  1.9509E-4    0.0046444828   
  873          0.0153199     5.0875E-4     0.00319451   0.79076476   95.87898276  2.7946E-4    0.0037913793   
  874          0.01403835    1.499E-4      0.00315632   0.73034031   95.8117069   1.0728E-4    0.004002069    
  875          0.01367897    4.9434E-4     0.00167709   0.66178286   95.77550345  5.16E-5      0.0053951724   
  876          0.01202269    3.933E-4      8.9311E-4    0.61381659   95.78500345  -1.02E-5     0.003322069    
  877          0.01197479    7.4694E-4     5.6088E-4    0.44634622   95.85485172  6.3092E-4    0.0048227586   
  878          0.00996872    6.6559E-4     6.775E-4     0.30408198   95.98385517  -1.4764E-4   0.0035882759   
  879          0.01206697    7.7784E-4     3.69E-5      0.21000964   96.1661069   3.4542E-4    0.0036017241   
  880          0.01038548    5.4172E-4     8.9897E-4    0.14801279   96.40143448  3.8051E-4    0.0044855172   
  881          0.01378662    0.00114209    5.7275E-4    0.10622592   96.64269655  5.232E-4     0.0041627586   
  882          0.01118062    0.00130439    0.00189886   0.07798663   96.8816931   5.8815E-4    0.0035141379   
  883          0.01251924    0.00133513    0.00402299   0.05711672   97.10404828  1.6593E-4    0.0042596552   
  884          0.01120555    9.8568E-4     0.00539825   0.04099653   97.2888      8.17E-5      0.0031896552   
  885          0.00886334    8.5798E-4     0.00241732   0.03223415   97.42983103  3.2002E-4    0.00411        
  886          0.01082938    2.6441E-4     9.1265E-4    0.02508678   97.51457931  3.9514E-4    0.0037472414   
  887          0.01229145    5.9148E-4     8.3163E-4    0.01967343   97.53057241  3.63E-5      0.0043351724   
  888          0.01049121    2.1846E-4     6.4704E-4    0.01554175   97.47488276  2.576E-4     0.0040965517   
  889          0.008793      2.3551E-4     0.00105952   0.01252644   97.35998276  5.2742E-4    0.0031148276   
  890          0.010526      6.1001E-4     2.3007E-4    0.01027092   97.22111379  -5.1161E-4   0.003247931    
  891          0.01199017    -6.0E-6       8.26E-5      0.00819799   97.05672414  6.6744E-4    0.0041344828   
  892          0.01031283    8.1141E-4     7.1287E-4    0.00710743   96.87380345  9.05E-5      0.0031758621   
  893          0.01314162    1.9613E-4     5.1006E-4    0.00616072   96.69061724  5.7727E-4    0.0027482759   
  894          0.01088462    5.8031E-4     3.7105E-4    0.00603162   96.53332759  1.1694E-4    0.0026251724   
  895          0.00941438    3.1434E-4     5.5326E-4    0.0047277    96.42453448  6.7062E-4    0.002787931    
  896          0.00815341    3.0318E-4     0.00117424   0.00447425   96.36672069  1.2712E-4    0.0022727586   
  897          0.01034203    4.4719E-4     7.22E-5      0.0052732    96.3634931   -4.1119E-4   0.0027672414   
  898          0.00734079    1.2466E-4     -0.00111705  0.00338632   96.42011379  -4.0297E-4   0.002822069    
  899          0.00804579    -0.00180386   -0.00237416  3.2729E-4    96.52657241  -0.00153234  0.0021017241   
  900          0.00943576    0.0018475     2.9942E-4    -0.08517785  96.68707241  -3.699E-4    0.0016141379   
  901          0.00789183    0.00229857    8.764E-4     -0.08685275  96.88285862  -9.5442E-4   0.0028617241   
  902          0.00883117    0.00330507    1.0344E-4    -0.08692025  97.08992069  -8.552E-4    0.0025624138   
  903          0.00978465    0.00319275    -9.62E-5     -0.08777695  97.29114483  1.086E-4     0.002387931    
  904          0.007845      0.00196643    1.4721E-4    -0.08705477  97.46666207  5.3221E-4    0.0029362069   
  905          0.00974379    0.00176426    4.7368E-4    -0.0878105   97.59740345  -4.5711E-4   0.0024041379   
  906          0.0106171     0.00115514    -3.6384E-4   -0.08763669  97.67020345  4.2131E-4    0.00272        
  907          0.00871238    0.00133001    5.66E-5      -0.08701457  97.68177586  2.7262E-4    0.0027386207   
  908          0.00864124    0.00144574    1.1554E-4    -0.08746113  97.64132069  3.1644E-4    0.0023434483   
  909          0.00780403    7.9988E-4     4.0439E-4    -0.0862935   97.55968966  -1.7073E-4   0.0020544828   
  910          0.00860821    8.9392E-4     -5.5771E-4   -0.08674187  97.45434138  0.00118497   0.0023627586   
  911          0.006693      0.00120785    5.4803E-4    -0.0861789   97.34622069  5.1131E-4    0.0026244828   
  912          0.00812972    0.00121119    5.0697E-4    -0.08636499  97.25546207  0.00101094   0.0021672414   
  913          0.00676897    0.0020613     4.6677E-4    -0.08729322  97.19262759  0.00236211   0.0024610345   
  914          0.00666924    0.00140142    3.9E-5       -0.08709166  97.17001034  0.00276824   0.0023072414   
  915          0.00824462    0.00112833    1.2147E-4    -0.08704259  97.20278621  0.0036223    0.0020751724   
  916          0.00734552    9.5759E-4     3.5236E-4    -0.08577967  97.29244483  0.004459     0.0019641379   
  917          0.00594765    0.00107442    1.4915E-4    -0.08627418  97.41575862  0.00531794   0.0017258621   
  918          0.00752593    8.9767E-4     2.03E-5      -0.08694311  97.57823103  0.00559779   0.0018593103   
  919          0.009404      0.00134413    0.00120199   -0.08639     97.75217241  0.00724333   0.0016751724   
  920          0.00855345    8.7708E-4     0.00534888   -0.08687302  97.9163      0.00817344   0.0013186207   
  921          0.00662476    0.00100631    0.00539501   -0.08627837  98.05670345  0.0098887    0.00196        
  922          0.00600817    6.852E-4      0.00307886   -0.08698344  98.14606897  0.01263475   0.0018355172   
  923          0.00814807    7.8217E-4     0.00102665   -0.08582687  98.18432414  0.01646116   0.0016155172   
  924          0.00698186    6.5177E-4     0.00102931   -0.08662549  98.15585517  0.02038113   0.001712069    
  925          0.00621762    9.37E-4       9.4469E-4    -0.08628934  98.04994483  0.02660478   0.0014365517   
  926          0.00625259    7.92E-5       2.5E-5       -0.08586697  97.87303103  0.03580754   0.0016627586   
  927          0.00638214    8.6704E-4     1.0923E-4    -0.08638525  97.64858966  0.04872893   0.0015841379   
  928          0.00507931    3.9848E-4     -4.1616E-4   -0.0861473   97.38671724  0.06831746   0.0015565517   
  929          0.00705828    9.1328E-4     1.5202E-4    -0.08591112  97.10298966  0.09534252   0.0014875862   
  930          0.0076471     0.00105055    7.333E-4     -0.08581094  96.8206      0.13626903   9.486207E-4    
  931          0.00648393    9.2674E-4     -4.43E-5     -0.08637673  96.57003793  0.19739845   0.0014641379   
  932          0.00653697    4.7224E-4     0.00112954   -0.08593891  96.35934828  0.28808516   0.0014427586   
  933          0.00595059    9.9577E-4     -1.8289E-4   -0.0854537   96.20648621  0.37372955   0.0012586207   
  934          0.00785986    5.3075E-4     0.00109537   -0.08589978  96.11768966  0.41384745   0.0013396552   
  935          0.00612403    8.6927E-4     1.5521E-4    -0.08547266  96.08474828  0.45867924   0.00129        
  936          0.00672831    -8.49E-5      -1.8227E-4   -0.08581348  96.10737931  0.51387307   0.0012765517   
  937          0.00607834    6.6617E-4     -6.35E-6     -0.08624208  96.17291724  0.59169207   0.001282069    
  938          0.00548293    4.9593E-4     1.4876E-4    -0.08647369  96.2768069   0.69025862   0.0012003448   
  939          0.00470031    0.00102918    7.0296E-4    -0.08716635  96.40894138  0.81195497   0.0011327586   
  940          0.00565917    7.779E-4      -1.3991E-4   -0.0856058   96.54100345  0.98129128   0.0013037931   
  941          0.00544952    0.0012006     8.0342E-4    -0.08600935  96.67748276  1.2052009    0.0012758621   
  942          0.00489645    5.6525E-4     1.8256E-4    -0.08568265  96.78801379  1.50919965   0.0010406897   
  943          0.0061641     9.4719E-4     8.3809E-4    -0.08631854  96.86003448  1.92787345   0.0012937931   
  944          0.00605914    0.00162133    0.00120815   -0.08627657  96.90074828  2.5152       0.0010103448   
  945          0.00419283    0.00154225    0.00177978   -0.08575347  96.90490345  3.36793138   0.001402069    
  946          0.00625369    0.00278398    3.1625E-4    -0.0851042   96.8665931   4.62959103   0.0013786207   
  947          0.00590293    0.00202726    -2.4122E-4   -0.08521378  96.78788966  6.52424      0.0010972414   
  948          0.00542169    0.00163357    5.5383E-4    -0.08621978  96.68982414  9.37398724   9.110345E-4    
  949          0.00533438    0.00137161    -2.7792E-4   -0.08624889  96.61062069  13.58922379  0.0013572414   
  950          0.00554683    0.00141901    5.0626E-4    -0.086243    96.52042759  19.60723793  0.0010244828   
  951          0.00530265    1.6261E-4     -1.0133E-4   -0.08570878  96.45486897  27.63805517  0.0012603448   
  952          0.00620969    1.7833E-4     -2.1588E-4   -0.08566314  96.42218621  37.51754483  0.0012562069   
  953          0.00476052    4.9698E-4     1.1109E-4    -0.08580343  96.41163103  48.64249655  0.0010713793   
  954          0.00498545    0.001444      -6.8682E-4   -0.08542977  96.44324483  59.96146207  0.0012748276   
  955          0.00604648    0.00171872    -3.79E-5     -0.08513664  96.51504138  70.34892759  9.503448E-4    
  956          0.00521248    7.5711E-4     7.1E-5       -0.08594455  96.6137069   78.9429931   0.0011386207   
  957          0.00532324    7.3579E-4     1.8012E-4    -0.08539631  96.72747586  85.31191034  0.0010341379   
  958          0.00552276    0.00142002    1.3794E-4    -0.0852242   96.85158621  89.51659655  7.944828E-4    
  959          0.00489866    3.6759E-4     3.7934E-4    -0.08531234  96.96984138  92.02636897  7.289655E-4    
  960          0.00523097    8.8402E-4     4.28E-5      -0.08524323  97.07386207  93.40096552  7.586207E-4    
  961          0.00485148    0.00126223    2.0221E-4    -0.08582203  97.15876207  94.13285517  0.0010751724   
  962          0.00527072    3.1049E-4     -3.983E-4    -0.08436657  97.22303793  94.57978966  8.62069E-4     
  963          0.00543559    7.7981E-4     1.9968E-4    -0.08512445  97.26866552  94.93500345  8.196552E-4    
  964          0.00435114    0.00146052    -4.4388E-4   -0.08457083  97.28904138  95.26380345  7.927586E-4    
  965          0.00518672    0.00119595    3.4756E-4    -0.0857745   97.30137586  95.58367586  0.0011913793   
  966          0.00474266    0.00172628    -1.7229E-4   -0.08465127  97.32246552  95.8832      0.0011944828   
  967          0.00482766    0.00187973    3.4428E-4    -0.08544035  97.35903103  96.14173103  8.655172E-4    
  968          0.00590059    4.2165E-4     3.5382E-4    -0.08489903  97.41433103  96.33684483  0.0010682759   
  969          0.00359231    0.00177863    7.4874E-4    -0.08429293  97.49569655  96.4723069   7.831034E-4    
  970          0.00475521    0.00173295    2.5855E-4    -0.08440375  97.60832759  96.54804828  0.0010544828   
  971          0.00513134    0.00171608    -0.00102945  -0.08463025  97.74775862  96.5674931   0.0010310345   
  972          0.00500103    0.0017246     -2.15E-5     -0.08550357  97.89318621  96.54822414  8.444828E-4    
  973          0.0050821     0.00157912    3.849E-4     -0.0842763   98.03728621  96.50147241  7.706897E-4    
  974          0.00481762    0.00138921    2.5051E-4    -0.08513694  98.16392069  96.44496552  7.913793E-4    
  975          0.00424772    0.00102072    3.4901E-4    -0.08471779  98.25799655  96.39393103  9.513793E-4    
  976          0.00539703    0.00150548    -3.24E-6     -0.0841123   98.30843448  96.3597      7.734483E-4    
  977          0.00325948    4.6782E-4     6.5838E-4    -0.08551363  98.30538621  96.35675862  0.0010286207   
  978          0.00354786    8.0607E-4     9.6E-5       -0.08478653  98.2411069   96.38946207  8.396552E-4    
  979          0.00537903    9.2056E-4     -1.13E-5     -0.08402357  98.12274483  96.46285862  9.896552E-4    
  980          0.00459276    8.6349E-4     -1.6858E-4   -0.08440651  97.96438276  96.57638621  8.537931E-4    
  981          0.00593303    0.00123099    3.2439E-4    -0.08431078  97.77727931  96.71862759  9.265517E-4    
  982          0.00438366    7.9894E-4     3.1304E-4    -0.08429888  97.57487241  96.89152414  8.113793E-4    
  983          0.00498793    7.8778E-4     -2.5702E-4   -0.08412327  97.36176207  97.08274483  8.337931E-4    
  984          0.00457276    0.00194054    -6.823E-4    -0.08482152  97.14498966  97.27602759  8.303448E-4    
  985          0.00408914    0.001233      7.45E-5      -0.08364243  96.93192414  97.45794483  9.52069E-4     
  986          0.00465379    7.1051E-4     1.76E-5      -0.08394158  96.71482069  97.62996552  0.0010055172   
  987          0.00446924    0.00109834    7.39E-5      -0.08517487  96.47593103  97.77955172  0.0012793103   
  988          0.00452259    3.8396E-4     1.4998E-4    -0.08406487  96.2105069   97.89628276  8.268966E-4    
  989          0.00477948    5.4383E-4     -3.6242E-4   -0.08379683  95.9147931   97.97755517  0.0010224138   
  990          0.00600424    0.00121879    -4.6252E-4   -0.08390424  95.57576207  98.03214138  9.72069E-4     
  991          0.00495628    4.3213E-4     -3.0019E-4   -0.08400304  95.21435862  98.0586931   8.596552E-4    
  992          0.00537169    8.9691E-4     -3.82E-4     -0.08448433  94.82381379  98.07273448  8.87931E-4     
  993          0.00542128    0.00119006    -4.67E-5     -0.08419599  94.34404483  98.07998966  9.87931E-4     
  994          0.00621021    3.4147E-4     2.2067E-4    -0.08374259  93.63032759  98.07830345  0.0011693103   
  995          0.003071      6.8879E-4     -5.5169E-4   -0.08392719  92.4093069   98.08345172  8.4E-4         
  996          0.00505748    0.0012933     5.74E-5      -0.08415793  90.30053103  98.09978621  9.131034E-4    
  997          0.00548721    0.00122161    3.6441E-4    -0.08380581  86.93748276  98.12417931  9.482759E-4    
  998          0.00428976    6.464E-4      -3.029E-4    -0.08400975  82.03393103  98.15242759  9.368966E-4    
  999          0.00506531    8.7482E-4     -2.1476E-4   -0.08397093  75.44106552  98.18474483  9.8E-4         
  1000         0.00499076    9.7363E-4     -1.94E-5     -0.08399853  67.28032414  98.22368276  8.806897E-4    
  1001         0.00410145    -4.9777E-4    -3.8853E-4   -0.08357236  57.96488966  98.25462069  7.462069E-4    
  1002         0.00587824    6.0389E-4     5.9E-5       -0.08367639  48.08346552  98.27333793  9.131034E-4    
  1003         0.00401521    3.4142E-4     7.45E-5      -0.08322766  38.3178      98.28426552  9.231034E-4    
  1004         0.00396634    4.101E-4      -6.35E-5     -0.08403221  29.36553103  98.27574828  7.941379E-4    
  1005         0.00393866    6.3227E-4     -6.3671E-4   -0.08363758  21.69526483  98.25201034  7.641379E-4    
  1006         0.00416245    9.3789E-4     -2.7206E-4   -0.08422888  15.54454552  98.22336552  7.244828E-4    
  1007         0.00326145    4.9957E-4     -5.3221E-4   -0.08290712  10.91227241  98.1955      9.555172E-4    
  1008         0.00365162    3.4247E-4     -4.7502E-4   -0.08365673  7.59602069   98.16223448  7.782759E-4    
  1009         0.00436621    5.5224E-4     2.3665E-4    -0.08417169  5.31949207   98.13055862  6.496552E-4    
  1010         0.00496234    8.7815E-4     -1.5424E-4   -0.08322635  3.80400172   98.10885862  7.327586E-4    
  1011         0.00537841    8.6281E-4     -7.1921E-4   -0.08367713  2.81131966   98.09932759  7.765517E-4    
  1012         0.00414703    5.3282E-4     1.4184E-4    -0.08401682  2.15963448   98.09924483  9.758621E-4    
  1013         0.00372414    0.00110103    -3.44E-5     -0.0837336   1.71586414   98.11043793  0.0011168966   
  1014         0.00580114    0.00114304    3.1815E-4    -0.08349615  1.41215345   98.13465862  8.175862E-4    
  1015         0.00323672    8.9985E-4     2.6509E-4    -0.08292085  1.20120372   98.16077241  0.0010141379   
  1016         0.00699307    3.9908E-4     5.56E-5      -0.08338179  1.05059134   98.18263793  7.982759E-4    
  1017         0.0051289     0.00146333    -3.1393E-4   -0.08407281  0.93523214   98.2117      9.986207E-4    
  1018         0.00398507    0.00115553    -1.2091E-4   -0.08366496  0.84316003   98.22435172  0.0010527586   
  1019         0.00537445    0.00237882    1.2273E-4    -0.08470864  0.76942603   98.22938276  8.786207E-4    
  1020         0.00574362    4.1077E-4     3.8542E-4    -0.08336394  0.71296234   98.23044483  0.0010772414   
  1021         0.00337776    8.2944E-4     -6.9199E-4   -0.08277018  0.67200741   98.22206207  8.02069E-4     
  1022         0.00580476    4.0131E-4     0.00122228   -0.08361722  0.51265913   98.20493793  7.775862E-4    
  1023         0.00439959    0.00130163    -8.4726E-4   -0.08325349  0.31762457   98.17543793  7.751724E-4    
  1024         0.00560624    0.00110258    -4.66E-5     -0.08315295  0.19285202   98.14644828  0.0010896552   
  1025         0.00447524    9.9743E-4     -5.3612E-4   -0.08353021  0.10848592   98.12403448  9.948276E-4    
  1026         0.00388566    0.00120448    -1.1467E-4   -0.08329854  0.05340676   98.08875172  0.0011944828   
  1027         0.00440141    8.1522E-4     2.9884E-4    -0.08315548  0.01502163   98.06085172  0.0010158621   
  1028         0.00505041    0.0011554     1.346E-4     -0.08321884  -0.01181845  98.03214828  8.282759E-4    
  1029         0.00453276    0.0015735     0.00104922   -0.08314133  -0.03073456  98.00083103  9.975862E-4    
  1030         0.00509807    8.1132E-4     -2.29E-5     -0.08270831  -0.04396031  97.97345862  8.52069E-4     
  1031         0.0041421     0.001303      2.6417E-4    -0.0831664   -0.0530777   97.94147586  9.951724E-4    
  1032         0.00582507    3.9844E-4     2.7825E-4    -0.08316751  -0.06005574  97.90215517  0.0010958621   
  1033         0.00402183    0.00108756    2.4599E-4    -0.08322468  -0.06490862  97.85859655  0.0010675862   
  1034         0.00420852    5.4758E-4     -6.64E-5     -0.08320177  -0.06965119  97.81161379  8.903448E-4    
  1035         0.00497334    3.8959E-4     -4.3537E-4   -0.08301306  -0.07206469  97.75207586  0.001037931    
  1036         0.00422069    4.0437E-4     -4.5321E-4   -0.0831067   -0.07413752  97.70081724  0.0010531034   
  1037         0.00387935    1.1014E-4     7.85E-6      -0.08222797  -0.07550475  97.64138621  7.851724E-4    
  1038         0.00296503    0.00106178    2.8304E-4    -0.08292859  -0.07725631  97.56802069  6.806897E-4    
  1039         0.00507162    7.8002E-4     -0.00100472  -0.08274392  -0.07765582  97.49048276  8.055172E-4    
  1040         0.00417435    0.00114047    1.7958E-4    -0.08339427  -0.07883475  97.39300345  9.817241E-4    
  1041         0.00355828    8.8553E-4     4.2188E-4    -0.08335514  -0.07904601  97.2771931   8.865517E-4    
  1042         0.00461634    6.5715E-4     -4.6489E-4   -0.08264275  -0.07984959  97.13005862  0.0010017241   
  1043         0.00491028    0.00100206    5.75E-5      -0.08337531  -0.08051312  96.93413793  8.134483E-4    
  1044         0.00374559    0.0011012     -2.5827E-4   -0.08375763  -0.08103105  96.68173448  8.262069E-4    
  1045         0.00444779    0.00114208    -3.8015E-4   -0.08336924  -0.08121686  96.3691069   7.548276E-4    
  1046         0.00355969    8.856E-4      -8.8952E-4   -0.08321589  -0.08079203  95.98506207  9.882759E-4    
  1047         0.00575641    7.8354E-4     2.6956E-4    -0.0835759   -0.08163605  95.52543793  7.965517E-4    
  1048         0.00405383    1.021E-4      -9.0551E-4   -0.08313812  -0.08236267  94.99911724  6.931034E-4    
  1049         0.00404783    6.9146E-4     -1.6975E-4   -0.08271016  -0.08179546  94.42902759  0.0010762069   
  1050         0.00428579    0.00114457    2.666E-4     -0.08383571  -0.08170501  93.83692759  0.0010286207   
  1051         0.00467003    2.9477E-4     4.1979E-4    -0.08235806  -0.08225887  93.23836207  9.106897E-4    
  1052         0.00493072    1.0988E-4     -4.2301E-4   -0.0831213   -0.08164231  92.65        9.241379E-4    
  1053         0.00634159    6.7977E-4     -0.0010471   -0.0831932   -0.08228975  92.10451724  9.906897E-4    
  1054         0.00334745    5.9652E-4     9.98E-5      -0.08238351  -0.08181048  91.57886552  0.0010462069   
  1055         0.00463107    0.00127094    9.05E-5      -0.08346404  -0.08129183  91.05288966  0.0010834483   
  1056         0.0045201     0.00106778    6.64E-5      -0.08326277  -0.08304794  90.45922759  9.02069E-4     
  1057         0.00360862    0.00107011    2.5491E-4    -0.08319335  -0.08289564  89.66606552  0.0010896552   
  1058         0.00475424    0.00155073    5.6324E-4    -0.08379262  -0.08254421  88.51294828  8.027586E-4    
  1059         0.00467697    0.00177834    6.09E-5      -0.08295124  -0.08293746  86.78724138  0.0010141379   
  1060         0.0051409     0.00110578    1.2571E-4    -0.0831385   -0.08227358  84.2558069   9.562069E-4    
  1061         0.00456355    0.00168599    2.4288E-4    -0.08364692  -0.08206809  80.69453793  0.0011227586   
  1062         0.004117      0.00187776    2.6964E-4    -0.08310041  -0.08279353  75.91865517  0.0011889655   
  1063         0.00346307    0.00190912    -1.99E-5     -0.08313188  -0.08240388  69.82715172  0.0011437931   
  1064         0.00382317    0.00215277    9.99E-5      -0.08320766  -0.08229497  62.52074828  0.0010527586   
  1065         0.00588117    0.00167423    -7.44E-5     -0.08327684  -0.08289828  54.29917414  0.0012755172   
  1066         0.00379993    0.001704      -5.4735E-4   -0.08246017  -0.08206539  45.62911759  0.0012041379   
  1067         0.00694221    0.0014682     8.9793E-4    -0.08266208  -0.08268478  37.07126552  8.293103E-4    
  1068         0.00325952    0.00180463    -1.4125E-4   -0.08213396  -0.08202362  29.15648759  0.0011903448   
  1069         0.00488855    0.00132913    2.0264E-4    -0.08283171  -0.08340985  22.28442448  0.0012286207   
  1070         0.00460197    0.00162379    -2.6672E-4   -0.08362104  -0.08226427  16.67047069  0.0011041379   
  1071         0.00480645    0.00167102    -1.15E-4     -0.0831049   -0.0829342   12.30931966  0.0011527586   
  1072         0.00413983    0.00171086    2.4893E-4    -0.083511    -0.08238182  9.05642483   0.0011631034   
  1073         0.00482093    0.00159374    -6.9752E-4   -0.08347466  -0.08311738  6.72320965   0.0011572414   
  1074         0.00496514    0.00138923    -2.3824E-4   -0.08277287  -0.08248539  5.10316172   0.0013010345   
  1075         0.00468124    0.00144415    -7.8417E-4   -0.08246155  -0.0820122   4.00085138   0.0010355172   
  1076         0.00473062    1.8252E-4     -2.8575E-4   -0.08397977  -0.08222649  3.23737241   0.001137931    
  1077         0.0051509     0.00111093    -5.6887E-4   -0.0833801   -0.08341536  2.69669138   0.0011893103   
  1078         0.00511445    0.00123161    -2.7966E-4   -0.08301298  -0.08333993  2.31629172   0.0011896552   
  1079         0.00431121    7.0671E-4     -6.8579E-4   -0.08333811  -0.08177968  2.06316862   0.0011468966   
  1080         0.00520559    0.0016106     -7.9846E-4   -0.0827429   -0.08308921  1.18204701   0.0010713793   
  1081         0.00368538    0.00100757    -2.6684E-4   -0.08327328  -0.08181951  0.78186524   0.0012324138   
  1082         0.00559       0.00136045    7.54E-5      -0.08358066  -0.08283906  0.52286077   0.0011931034   
  1083         0.00487517    6.9134E-4     2.3575E-4    -0.08317198  -0.08296668  0.3540625    8.903448E-4    
  1084         0.00534238    0.00127203    1.1082E-4    -0.08342983  -0.08273658  0.24263893   0.0013027586   
  1085         0.00581459    8.9918E-4     2.5731E-4    -0.08311422  -0.08269494  0.16756727   0.0011327586   
  1086         0.00384479    0.00116609    -8.2928E-4   -0.0836559   -0.08264992  0.11709669   0.0011672414   
  1087         0.0051761     0.00144153    -1.7471E-4   -0.08331855  -0.08326706  0.08368177   0.0011768966   
  1088         0.00643614    5.3907E-4     9.6931E-4    -0.0832711   -0.08200075  0.05956583   0.0013241379   
  1089         0.00485679    0.00169103    -3.0229E-4   -0.08398607  -0.08291194  0.04362047   0.0012         
  1090         0.00581852    4.7808E-4     -2.486E-4    -0.08335748  -0.08277959  0.03182469   0.0013403448   
  1091         0.00499214    0.00115179    -2.9229E-4   -0.08333294  -0.08277964  0.02313808   0.0012282759   
  1092         0.00660648    0.00239823    1.4854E-4    -0.08310545  -0.08262309  0.01797817   0.0015865517   
  1093         0.00758583    0.001444      -1.4845E-4   -0.08324569  -0.0830761   0.01293725   0.0014841379   
  1094         0.00849155    0.00101636    5.44E-5      -0.08321065  -0.08242526  0.01119921   0.0018937931   
  1095         0.0081559     0.00193852    4.4341E-4    -0.08283342  -0.08253679  0.00833828   0.0016365517   
  1096         0.01044786    0.00172939    1.5171E-4    -0.08410514  -0.08277018  0.00633391   0.0015962069   
  1097         0.01061531    0.00109917    -1.556E-4    -0.08388924  -0.08298165  0.00537765   0.0019762069   
  1098         0.00994707    0.0024647     -4.1038E-4   -0.0834014   -0.0825786   0.00369164   0.0022103448   
  1099         0.01076214    0.00215096    -4.8863E-4   -0.08313621  -0.08194089  0.00318824   0.0022258621   
  1100         0.01077938    0.00270941    -5.9364E-4   -0.08334281  -0.08360283  0.00208123   0.002392069    

